"LOLTOT_Slow_CdTe_400-1000 - RawData"
"Wavelength nm.","T%"
400.00,-0.01846
402.00,-0.01863
404.00,-0.01872
406.00,-0.01940
408.00,-0.02047
410.00,-0.02148
412.00,-0.02132
414.00,-0.02078
416.00,-0.02057
418.00,-0.02094
420.00,-0.02185
422.00,-0.02129
424.00,-0.02075
426.00,-0.01967
428.00,-0.01989
430.00,-0.01986
432.00,-0.01982
434.00,-0.02049
436.00,-0.02108
438.00,-0.02156
440.00,-0.02011
442.00,-0.01965
444.00,-0.01935
446.00,-0.01994
448.00,-0.01978
450.00,-0.01991
452.00,-0.02095
454.00,-0.02141
456.00,-0.02101
458.00,-0.01967
460.00,-0.01979
462.00,-0.02018
464.00,-0.02070
466.00,-0.02015
468.00,-0.01985
470.00,-0.02010
472.00,-0.02068
474.00,-0.02079
476.00,-0.02057
478.00,-0.02014
480.00,-0.02071
482.00,-0.02054
484.00,-0.02094
486.00,-0.02030
488.00,-0.01955
490.00,-0.01890
492.00,-0.01906
494.00,-0.02062
496.00,-0.02040
498.00,-0.02006
500.00,-0.01949
502.00,-0.02020
504.00,-0.02108
506.00,-0.02113
508.00,-0.02108
510.00,-0.02039
512.00,-0.02032
514.00,-0.01991
516.00,-0.02020
518.00,-0.02041
520.00,-0.02059
522.00,-0.02088
524.00,-0.02073
526.00,-0.02061
528.00,-0.01990
530.00,-0.01944
532.00,-0.01917
534.00,-0.01932
536.00,-0.01913
538.00,-0.01922
540.00,-0.01935
542.00,-0.01960
544.00,-0.01967
546.00,-0.01939
548.00,-0.01911
550.00,-0.01947
552.00,-0.01967
554.00,-0.02008
556.00,-0.02005
558.00,-0.02004
560.00,-0.01984
562.00,-0.01930
564.00,-0.01914
566.00,-0.01936
568.00,-0.01933
570.00,-0.01949
572.00,-0.01940
574.00,-0.01975
576.00,-0.01983
578.00,-0.01971
580.00,-0.01959
582.00,-0.01986
584.00,-0.01985
586.00,-0.01961
588.00,-0.01924
590.00,-0.01958
592.00,-0.01970
594.00,-0.01961
596.00,-0.01878
598.00,-0.01941
600.00,-0.01979
602.00,-0.02039
604.00,-0.02010
606.00,-0.02016
608.00,-0.02023
610.00,-0.01978
612.00,-0.01901
614.00,-0.01933
616.00,-0.01947
618.00,-0.02078
620.00,-0.02011
622.00,-0.01964
624.00,-0.01847
626.00,-0.01800
628.00,-0.01852
630.00,-0.01854
632.00,-0.01964
634.00,-0.01872
636.00,-0.01940
638.00,-0.01865
640.00,-0.01906
642.00,-0.01779
644.00,-0.01757
646.00,-0.01764
648.00,-0.01748
650.00,-0.01746
652.00,-0.01719
654.00,-0.01708
656.00,-0.01674
658.00,-0.01658
660.00,-0.01601
662.00,-0.01603
664.00,-0.01656
666.00,-0.01730
668.00,-0.01713
670.00,-0.01636
672.00,-0.01643
674.00,-0.01693
676.00,-0.01618
678.00,-0.01562
680.00,-0.01381
682.00,-0.01363
684.00,-0.01260
686.00,-0.01162
688.00,-0.01067
690.00,-0.01017
692.00,-0.00997
694.00,-0.00853
696.00,-0.00686
698.00,-0.00564
700.00,-0.00496
702.00,-0.00397
704.00,-0.00212
706.00,0.00001
708.00,0.00208
710.00,0.00384
712.00,0.00541
714.00,0.00738
716.00,0.01011
718.00,0.01379
720.00,0.01747
722.00,0.02074
724.00,0.02452
726.00,0.02864
728.00,0.03395
730.00,0.03971
732.00,0.04725
734.00,0.05583
736.00,0.06502
738.00,0.07474
740.00,0.08569
742.00,0.09882
744.00,0.11497
746.00,0.13384
748.00,0.15694
750.00,0.18329
752.00,0.21613
754.00,0.25197
756.00,0.29558
758.00,0.34731
760.00,0.41060
762.00,0.48578
764.00,0.57723
766.00,0.68421
768.00,0.81287
770.00,0.96161
772.00,1.14444
774.00,1.34637
776.00,1.58697
778.00,1.84720
780.00,2.14894
782.00,2.47578
784.00,2.82880
786.00,3.21863
788.00,3.65576
790.00,4.12520
792.00,4.65145
794.00,5.22650
796.00,5.85616
798.00,6.50984
800.00,7.24051
802.00,8.03131
804.00,8.85654
806.00,9.68557
808.00,10.57987
810.00,11.46159
812.00,12.31922
814.00,13.11517
816.00,13.86461
818.00,14.47827
820.00,14.95442
822.00,15.35676
824.00,15.70416
826.00,15.96384
828.00,16.21406
830.00,16.46435
832.00,16.84648
834.00,17.14483
836.00,17.63448
838.00,18.20484
840.00,19.01031
842.00,19.76820
844.00,20.61025
846.00,21.58848
848.00,22.64217
850.00,23.59752
852.00,24.30968
854.00,25.00987
856.00,25.58488
858.00,26.18238
860.00,26.46710
862.00,26.54324
864.00,26.42082
866.00,26.14324
868.00,26.06879
870.00,25.80009
872.00,25.67414
874.00,25.00949
876.00,24.57209
878.00,24.60311
880.00,25.04843
882.00,25.49893
884.00,25.24197
886.00,25.26735
888.00,25.80122
890.00,27.34459
892.00,29.33738
894.00,30.05483
896.00,31.64421
898.00,31.31462
900.00,32.64359
902.00,32.56477
904.00,34.18427
906.00,35.34900
908.00,36.19704
910.00,36.87994
912.00,37.47591
914.00,38.06334
916.00,37.97452
918.00,37.85863
920.00,37.58826
922.00,37.07569
924.00,36.26930
926.00,35.13862
928.00,34.03386
930.00,33.53335
932.00,33.06635
934.00,33.06749
936.00,32.96460
938.00,32.99202
940.00,33.28454
942.00,33.01316
944.00,33.10240
946.00,33.13025
948.00,34.09782
950.00,35.68657
952.00,37.65589
954.00,38.91673
956.00,39.79966
958.00,41.26289
960.00,41.66197
962.00,42.75724
964.00,44.15311
966.00,47.53814
968.00,49.38380
970.00,50.90059
972.00,50.30991
974.00,49.85600
976.00,49.16085
978.00,49.13238
980.00,49.56697
982.00,48.15383
984.00,46.28400
986.00,45.72728
988.00,43.42195
990.00,44.39257
992.00,41.63295
994.00,42.38384
996.00,40.29096
998.00,41.05753
1000.00,41.10492
